# K filter curve @ T=90K
# K
# Wavelength (nm)	T (%)
col1 col2
497.0 0.000266825
498.988 0.0
500.976 0.000979493
502.964 0.0
504.952 0.000150599
506.94 0.0
508.928 0.0
510.916 0.0
512.904 0.0
514.892 0.0
516.88 0.000544385
518.868 0.000507415
520.856 0.000179691
522.844 0.0
524.832 0.000111137
526.82 0.000598623
528.808 0.000926607
530.796 0.000531246
532.784 0.0
534.772 0.000609278
536.76 4.95e-05
538.748 0.0
540.736 0.000339538
542.724 4.18e-05
544.712 0.0
546.7 9.65e-05
548.688 0.0
550.676 0.000543028
552.664 0.000213077
554.652 0.0
556.64 0.00027473
558.628 0.0
560.616 0.0
562.604 0.000104298
564.592 0.0
566.58 3.12e-05
568.568 0.0
570.556 0.0
572.544 0.0
574.532 0.0
576.52 0.0
578.508 0.000223374
580.496 0.0
582.484 0.000233143
584.472 0.00080546
586.46 0.0
588.448 0.0001422
590.436 0.0
592.424 0.000437956
594.412 0.000339875
596.4 0.0
598.388 0.000165583
600.376 0.0
602.364 4.58e-05
604.352 0.0
606.34 0.00119771
608.328 0.000366391
610.316 0.0
612.304 0.0
614.292 0.0
616.28 0.0
618.268 9.89e-06
620.256 0.0
622.244 0.0
624.232 0.00011212
626.22 0.0
628.208 0.000170072
630.196 0.0
632.184 0.0
634.172 0.0
636.16 0.0
638.148 0.000230465
640.136 0.00012091
642.124 0.000677588
644.112 0.0
646.1 0.000631569
648.088 0.000115651
650.076 0.0
652.064 9.11e-06
654.052 0.0
656.04 2.74e-05
658.028 0.000244797
660.016 0.0
662.004 0.000184354
663.992 0.0
665.98 0.000359169
667.968 0.000165493
669.956 0.00028822
671.944 0.000465859
673.932 0.000924555
675.92 0.0
677.908 0.000447968
679.896 0.0
681.884 0.0
683.872 0.0
685.86 0.0
687.848 0.0
689.836 0.0
691.824 0.0
693.812 0.000575999
695.8 0.000104998
697.788 0.000141905
699.776 0.0
701.764 0.00024646
703.752 0.0
705.74 0.0
707.728 0.0
709.716 0.000356485
711.704 0.0
713.692 0.000187023
715.68 0.0
717.668 0.000713986
719.656 0.0
721.644 0.000225932
723.632 0.0
725.62 0.000233449
727.608 0.0
729.596 0.000621714
731.584 0.000596182
733.572 0.0
735.56 0.0
737.548 0.000518395
739.536 0.000228704
741.524 0.000353547
743.512 0.0
745.5 0.0
747.488 0.0
749.476 0.0
751.464 4.58e-05
753.452 0.000112151
755.44 0.0
757.428 0.0
759.416 0.0
761.404 0.0
763.392 8.97e-05
765.38 4.62e-05
767.368 0.000415203
769.356 0.000896866
771.344 0.001003686
773.332 0.000256549
775.32 3.63e-05
777.308 0.000409307
779.296 0.0
781.284 0.0
783.272 0.0
785.26 0.000273013
787.248 0.0
789.236 0.0
791.224 0.001004327
793.212 0.0
795.2 0.000116056
797.188 0.0
799.176 0.0
801.164 0.00064371
803.152 0.0
805.14 0.000672052
807.128 0.000652829
809.116 0.0
811.104 0.0
813.092 0.0
815.08 0.000536653
817.068 0.000251377
819.056 0.0
821.044 0.0
823.032 0.0
825.02 0.0
827.008 0.0
828.996 0.0
830.984 0.0
832.972 0.0
834.96 0.0
836.948 0.0
838.936 0.0
840.924 0.0
842.912 0.0
844.9 0.0
846.888 0.0
848.876 0.0
850.864 0.0
852.852 0.0
854.84 0.0
856.828 0.001593784
858.816 0.001632051
860.804 0.0
862.792 0.0
864.78 0.0
866.768 0.0
868.756 0.0
870.744 0.0
872.732 0.0
874.72 0.0
876.708 0.0
878.696 0.0
880.684 0.0
882.672 0.0
884.66 0.0
886.648 0.0
888.636 0.0
890.624 0.00025407
892.612 0.0
894.6 0.0
896.588 0.0
898.576 0.0
900.564 0.0
902.552 0.0
904.54 0.0
906.528 0.0
908.516 0.0
910.504 0.0
912.492 0.0
914.48 0.0
916.468 0.0
918.456 0.0
920.444 0.001612692
922.432 0.0
924.42 0.0
926.408 0.0
928.396 0.0
930.384 0.0
932.372 0.00882437
934.36 0.0
936.348 0.0
938.336 0.0
940.324 0.0
942.312 0.0
944.3 0.0
946.288 0.0
948.276 0.0
950.264 0.0
952.252 0.0
954.24 0.0
956.228 0.0
958.216 0.0
960.204 0.0
962.192 0.0
964.18 0.0
966.168 0.0
968.156 0.0
970.144 0.0
972.132 0.0
974.12 0.0
976.108 0.0
978.096 0.0
980.084 0.0
982.072 0.0
984.06 0.001472222
986.048 0.0
988.036 0.0
990.024 0.0
992.012 0.0
994.0 0.0
995.988 0.0
997.976 0.0
999.964 0.0
1001.952 0.002680433
1003.94 0.0
1005.928 0.0
1007.916 0.0
1009.904 0.0
1011.892 0.0
1013.88 0.0
1015.868 0.0
1017.856 0.0
1019.844 0.0
1021.832 0.0
1023.82 0.0
1025.808 0.0
1027.796 0.0
1029.784 0.0
1031.772 0.0
1033.76 0.0
1035.748 0.0
1037.736 0.0
1039.724 0.0
1041.712 0.0
1043.7 0.000511831
1045.688 0.0
1047.676 0.0
1049.664 0.0
1051.652 0.0
1053.64 0.0
1055.628 0.0
1057.616 0.0
1059.604 0.0
1061.592 0.0
1063.58 0.0
1065.568 0.0
1067.556 0.001689096
1069.544 0.0
1071.532 0.000144333
1073.52 0.0
1075.508 0.0
1077.496 0.002475685
1079.484 0.0
1081.472 0.0
1083.46 0.0
1085.448 0.0
1087.436 0.0
1089.424 0.00297177
1091.412 0.000435354
1093.4 0.0
1095.388 0.0
1097.376 0.0
1099.364 0.0
1101.352 0.0
1103.34 0.0
1105.328 0.0
1107.316 0.0
1109.304 0.0
1111.292 0.005359757
1113.28 0.0
1115.268 0.000153414
1117.256 0.0
1119.244 0.0
1121.232 0.0
1123.22 0.0
1125.208 0.016629107
1127.196 0.0
1129.184 0.0
1131.172 0.0
1133.16 0.0
1135.148 0.0
1137.136 0.0
1139.124 0.009175805
1141.112 0.0
1143.1 0.0
1145.088 0.0
1147.076 0.008383292
1149.064 0.0
1151.052 0.0
1153.04 0.0
1155.028 0.003808816
1157.016 0.0
1159.004 0.000381126
1160.992 0.0
1162.98 0.0
1164.968 0.0
1166.956 0.0
1168.944 0.0
1170.932 0.0
1172.92 0.0
1174.908 2.36e-05
1176.896 0.0
1178.884 0.0
1180.872 0.0
1182.86 0.0
1184.848 0.0
1186.836 0.0
1188.824 0.0
1190.812 0.0
1192.8 0.0
1194.788 0.0
1196.776 0.0
1198.764 0.0
1200.752 0.0
1202.74 0.0
1204.728 0.0
1206.716 0.000347873
1208.704 0.0
1210.692 0.0
1212.68 0.0
1214.668 0.0
1216.656 0.0
1218.644 0.0
1220.632 0.0
1222.62 0.0
1224.608 0.0
1226.596 0.0
1228.584 0.00647167
1230.572 0.0
1232.56 0.0
1234.548 0.0
1236.536 0.0
1238.524 0.0
1240.512 0.0
1242.5 0.0
1244.488 0.0
1246.476 0.0
1248.464 0.0
1250.452 0.0
1252.44 0.0
1254.428 0.0
1256.416 0.0
1258.404 0.0
1260.392 0.0
1262.38 0.0
1264.368 0.0
1266.356 0.0
1268.344 0.0
1270.332 0.0
1272.32 0.0
1274.308 0.0
1276.296 0.0
1278.284 0.0
1280.272 0.0
1282.26 0.0
1284.248 0.004022618
1286.236 0.0
1288.224 0.0
1290.212 0.0
1292.2 0.0
1294.188 0.0
1296.176 0.0
1298.164 0.0
1300.152 0.0
1302.14 0.0
1304.128 0.0
1306.116 0.0
1308.104 0.0
1310.092 0.0
1312.08 0.0
1314.068 0.00096636
1316.056 0.0
1318.044 0.0
1320.032 0.0
1322.02 0.0
1324.008 0.0
1325.996 0.0
1327.984 0.0
1329.972 0.0
1331.96 0.0
1333.948 0.001311885
1335.936 0.0
1337.924 0.000529458
1339.912 0.0
1341.9 0.0
1343.888 0.005736773
1345.876 0.0
1347.864 0.0
1349.852 0.0
1351.84 0.0
1353.828 0.0
1355.816 0.002252064
1357.804 0.0
1359.792 0.0
1361.78 0.0
1363.768 0.0
1365.756 0.0
1367.744 0.0
1369.732 0.0
1371.72 0.0
1373.708 0.002192021
1375.696 0.0
1377.684 0.001929015
1379.672 0.0
1381.66 0.0
1383.648 0.0
1385.636 0.0
1387.624 0.0
1389.612 0.0
1391.6 0.0
1393.588 0.0
1395.576 0.000520941
1397.564 0.0
1399.552 0.0
1401.54 0.0
1403.528 0.0
1405.516 0.0
1407.504 0.0
1409.492 0.0
1411.48 0.0
1413.468 0.0
1415.456 0.0
1417.444 0.001311006
1419.432 0.0
1421.42 0.0
1423.408 0.0
1425.396 0.0
1427.384 0.0
1429.372 0.007220978
1431.36 0.0
1433.348 0.00027199
1435.336 0.0
1437.324 0.0
1439.312 0.0
1441.3 0.0
1443.288 0.0
1445.276 0.0
1447.264 0.0
1449.252 0.0
1451.24 0.0
1453.228 0.0
1455.216 0.0
1457.204 0.0
1459.192 0.0
1461.18 0.0
1463.168 0.0
1465.156 0.002171734
1467.144 0.0
1469.132 0.0
1471.12 0.0
1473.108 0.0
1475.096 0.0
1477.084 0.0
1479.072 0.0
1481.06 0.0
1483.048 0.002548478
1485.036 0.0
1487.024 0.0
1489.012 0.0
1491.0 0.0
1492.988 0.002546014
1494.976 0.0
1496.964 0.0
1498.952 0.0
1500.94 0.0
1502.928 0.000757237
1504.916 0.0
1506.904 0.0
1508.892 0.0
1510.88 0.0
1512.868 0.0
1514.856 0.0
1516.844 0.0
1518.832 0.0
1520.82 0.0
1522.808 0.0
1524.796 0.0
1526.784 0.0
1528.772 0.0
1530.76 0.000485197
1532.748 0.0
1534.736 0.0
1536.724 0.0
1538.712 0.006284055
1540.7 0.0
1542.688 0.0
1544.676 0.0
1546.664 0.0
1548.652 0.0
1550.64 0.0
1552.628 0.0
1554.616 0.001161524
1556.604 0.0
1558.592 0.0
1560.58 0.0
1562.568 0.0
1564.556 0.0
1566.544 0.0
1568.532 0.0
1570.52 0.0
1572.508 0.0
1574.496 0.0
1576.484 0.0
1578.472 0.0
1580.46 0.0
1582.448 0.0
1584.436 0.003349381
1586.424 0.0
1588.412 0.0
1590.4 0.0
1592.388 0.0
1594.376 0.0
1596.364 0.0
1598.352 0.0
1600.34 0.0
1602.328 0.0
1604.316 0.0
1606.304 0.0
1608.292 0.0
1610.28 0.0
1612.268 0.0
1614.256 0.0
1616.244 0.0
1618.232 0.0
1620.22 0.002425544
1622.208 0.0
1624.196 0.0
1626.184 0.0
1628.172 0.001283779
1630.16 0.0
1632.148 0.0
1634.136 0.0
1636.124 0.0
1638.112 0.0
1640.1 0.0
1642.088 0.006199014
1644.076 0.0
1646.064 0.0
1648.052 0.006018543
1650.04 0.0
1652.028 0.0
1654.016 0.0
1656.004 0.0
1657.992 0.0
1659.98 0.0
1661.968 0.0
1663.956 0.0
1665.944 0.0
1667.932 0.0
1669.92 0.0
1671.908 0.0
1673.896 0.0
1675.884 0.005539138
1677.872 0.000314048
1679.86 0.0
1681.848 0.0
1683.836 0.0
1685.824 0.0
1687.812 0.0
1689.8 0.0
1691.788 0.0
1693.776 0.0
1695.764 0.0
1697.752 0.0
1699.74 0.0
1701.728 0.0
1703.716 0.0
1705.704 0.0
1707.692 0.0
1709.68 0.0
1711.668 0.0
1713.656 0.0
1715.644 0.0
1717.632 0.0
1719.62 0.0
1721.608 0.0
1723.596 0.0
1725.584 0.0
1727.572 0.0
1729.56 0.0
1731.548 0.0
1733.536 0.0
1735.524 0.0
1737.512 0.0
1739.5 0.0
1741.488 0.002494982
1743.476 0.0
1745.464 0.0
1747.452 0.00514661
1749.44 0.0
1751.428 0.0
1753.416 0.0
1755.404 0.0
1757.392 0.0
1759.38 0.0
1761.368 0.0
1763.356 0.0
1765.344 0.0
1767.332 0.0
1769.32 0.0
1771.308 0.0
1773.296 0.0
1775.284 0.0
1777.272 0.0
1779.26 0.0
1781.248 0.006885853
1783.236 0.0
1785.224 0.001374899
1787.212 0.0
1789.2 0.0
1791.188 0.0
1793.176 0.0
1795.164 0.0
1797.152 0.003841893
1799.14 0.000753883
1801.128 0.0
1803.116 0.000719148
1805.104 0.000427268
1807.092 0.0
1809.08 0.0
1811.068 0.0
1813.056 0.0
1815.044 0.0
1817.032 0.0
1819.02 0.0
1821.008 0.0
1822.996 0.0
1824.984 0.0
1826.972 0.0
1828.96 0.002038714
1830.948 0.0
1832.936 0.0
1834.924 0.0
1836.912 0.0
1838.9 0.0
1840.888 0.0
1842.876 0.0
1844.864 0.0
1846.852 0.0
1848.84 0.0
1850.828 0.0
1852.816 0.0
1854.804 0.0
1856.792 0.0
1858.78 0.001572133
1860.768 0.001937027
1862.756 0.0
1864.744 0.0
1866.732 0.000106955
1868.72 0.000152225
1870.708 0.0
1872.696 0.0
1874.684 0.0
1876.672 0.0
1878.66 0.0
1880.648 0.0
1882.636 0.009000352
1884.624 0.002654119
1886.612 0.000940809
1888.6 0.0
1890.588 0.006631515
1892.576 0.008191666
1894.564 0.013797576
1896.552 0.009592571
1898.54 0.015569467
1900.528 0.022585686
1902.516 0.027011396
1904.504 0.037168853
1906.492 0.052334275
1908.48 0.065497503
1910.468 0.092310436
1912.456 0.10978815
1914.444 0.149835467
1916.432 0.190114155
1918.42 0.238005698
1920.408 0.291509151
1922.396 0.349899709
1924.384 0.409219235
1926.372 0.471946597
1928.36 0.536275744
1930.348 0.597074151
1932.336 0.665005088
1934.324 0.739980161
1936.312 0.818478227
1938.3 0.912339866
1940.288 1.008391857
1942.276 1.136072993
1944.264 1.287239552
1946.252 1.480282307
1948.24 1.698910117
1950.228 1.971799374
1952.216 2.317011833
1954.204 2.784301996
1956.192 3.351060629
1958.18 4.053459644
1960.168 4.972446442
1962.156 6.138072968
1964.144 7.629930973
1966.132 9.561995506
1968.12 11.991965294
1970.108 15.144146919
1972.096 18.889846802
1974.084 23.343593597
1976.072 28.378110886
1978.06 33.587856293
1980.048 38.742835999
1982.036 43.625045776
1984.024 48.082164764
1986.012 51.526580811
1988.0 54.41809845
1989.988 56.762050629
1991.976 58.773517609
1993.964 60.545085907
1995.952 62.221263885
1997.94 63.939292908
1999.928 65.567115784
2001.916 67.274703979
2003.904 69.006446838
2005.892 70.5885849
2007.88 72.166694641
2009.868 73.539978027
2011.856 74.765670776
2013.844 75.727455139
2015.832 76.461112976
2017.82 77.01512146
2019.808 77.269172668
2021.796 77.447052002
2023.784 77.490409851
2025.772 77.380226135
2027.76 77.277030945
2029.748 77.137443542
2031.736 77.081565857
2033.724 76.984039307
2035.712 76.982055664
2037.7 77.072853088
2039.688 77.211631775
2041.676 77.412918091
2043.664 77.702690125
2045.652 77.996482849
2047.64 78.340133667
2049.628 78.667610168
2051.616 79.020843506
2053.604 79.392448425
2055.592 79.67364502
2057.58 79.970489502
2059.568 80.185897827
2061.556 80.339904785
2063.544 80.513923645
2065.532 80.553749084
2067.52 80.588302612
2069.508 80.633483887
2071.496 80.588500977
2073.484 80.557563782
2075.472 80.503768921
2077.46 80.472747803
2079.448 80.413291931
2081.436 80.399795532
2083.424 80.429458618
2085.412 80.421875
2087.4 80.504058838
2089.388 80.583625793
2091.376 80.678184509
2093.364 80.843429565
2095.352 80.990859985
2097.34 81.171379089
2099.328 81.377342224
2101.316 81.536605835
2103.304 81.746299744
2105.292 81.92401886
2107.28 82.08682251
2109.268 82.225669861
2111.256 82.353652954
2113.244 82.465270996
2115.232 82.513839722
2117.22 82.584114075
2119.208 82.613937378
2121.196 82.576690674
2123.184 82.56703186
2125.172 82.504837036
2127.16 82.409255981
2129.148 82.336608887
2131.136 82.245506287
2133.124 82.165977478
2135.112 82.035682678
2137.1 81.94442749
2139.088 81.833129883
2141.076 81.757614136
2143.064 81.683082581
2145.052 81.621307373
2147.04 81.578842163
2149.028 81.561714172
2151.016 81.5570755
2153.004 81.604537964
2154.992 81.614761353
2156.98 81.691947937
2158.968 81.759819031
2160.956 81.823043823
2162.944 81.975158691
2164.932 82.089408875
2166.92 82.249176025
2168.908 82.329734802
2170.896 82.511016846
2172.884 82.664009094
2174.872 82.786949158
2176.86 82.92237854
2178.848 83.014305115
2180.836 83.148452759
2182.824 83.208015442
2184.812 83.279083252
2186.8 83.386619568
2188.788 83.421081543
2190.776 83.464080811
2192.764 83.554748535
2194.752 83.578285217
2196.74 83.697021484
2198.728 83.69468689
2200.716 83.81477356
2202.704 83.869659424
2204.692 83.920288086
2206.68 83.996910095
2208.668 84.058944702
2210.656 84.115020752
2212.644 84.154853821
2214.632 84.163764954
2216.62 84.244522095
2218.608 84.263626099
2220.596 84.322311401
2222.584 84.37588501
2224.572 84.386924744
2226.56 84.482269287
2228.548 84.472946167
2230.536 84.559753418
2232.524 84.615379333
2234.512 84.65940094
2236.5 84.713768005
2238.488 84.791473389
2240.476 84.818649292
2242.464 84.855194092
2244.452 84.898719788
2246.44 84.937660217
2248.428 84.961700439
2250.416 84.963554382
2252.404 84.999176025
2254.392 84.978141785
2256.38 84.962348938
2258.368 84.92199707
2260.356 84.906852722
2262.344 84.882156372
2264.332 84.78994751
2266.32 84.723930359
2268.308 84.608581543
2270.296 84.445625305
2272.284 84.264183044
2274.272 84.022163391
2276.26 83.650161743
2278.248 83.216011047
2280.236 82.489067078
2282.224 81.684806824
2284.212 80.527648926
2286.2 79.097053528
2288.188 77.261367798
2290.176 75.020141602
2292.164 72.350898743
2294.152 69.257728577
2296.14 65.51121521
2298.128 61.385959625
2300.116 57.0899086
2302.104 52.61075592
2304.092 47.992862701
2306.08 43.470935822
2308.068 38.964939117
2310.056 34.659976959
2312.044 30.581796646
2314.032 26.937812805
2316.02 23.647399902
2318.008 20.63574028
2319.996 18.052289963
2321.984 15.775635719
2323.972 13.826401711
2325.96 12.127214432
2327.948 10.589762688
2329.936 9.282752037
2331.924 8.127222061
2333.912 7.114124298
2335.9 6.271456718
2337.888 5.496649265
2339.876 4.832757473
2341.864 4.291684151
2343.852 3.812221766
2345.84 3.378903389
2347.828 3.00850749
2349.816 2.681573868
2351.804 2.402582645
2353.792 2.163452387
2355.78 1.939674497
2357.768 1.748070478
2359.756 1.57817626
2361.744 1.420226812
2363.732 1.292954683
2365.72 1.173684239
2367.708 1.063418031
2369.696 0.965430021
2371.684 0.878204048
2373.672 0.800923645
2375.66 0.730493546
2377.648 0.67397964
2379.636 0.61126703
2381.624 0.558459461
2383.612 0.515979648
2385.6 0.471436054
2387.588 0.42741406
2389.576 0.394141853
2391.564 0.373394519
2393.552 0.337213337
2395.54 0.310035765
2397.528 0.286832303
2399.516 0.253182113
2401.504 0.238229781
2403.492 0.222090498
2405.48 0.204329163
2407.468 0.18234244
2409.456 0.173011243
2411.444 0.159524411
2413.432 0.140618801
2415.42 0.128041357
2417.408 0.136504129
2419.396 0.114089981
2421.384 0.109097935
2423.372 0.095149174
2425.36 0.086950853
2427.348 0.082164511
2429.336 0.074866109
2431.324 0.068448804
2433.312 0.063466363
2435.3 0.06019523
2437.288 0.054306079
2439.276 0.052897237
2441.264 0.047222532
2443.252 0.03980393
2445.24 0.032804646
2447.228 0.037447859
2449.216 0.032399151
2451.204 0.029561648
2453.192 0.028366832
2455.18 0.026848504
2457.168 0.029645145
2459.156 0.018841112
2461.144 0.016313737
2463.132 0.010697888
2465.12 0.030160766
2467.108 0.024290659
2469.096 0.013840666
2471.084 0.012434248
2473.072 0.012442374
2475.06 0.008754848
2477.048 0.008688907
2479.036 0.013756943
2481.024 0.011640197
2483.012 0.007220156
2485.0 0.005169122
2486.988 0.010203329
2488.976 0.003697358
2490.964 0.009660774
2492.952 0.010928935
2494.94 0.0
2496.928 0.00542962
2498.916 0.001943722
2500.904 0.001361787
2502.892 0.006362989
2504.88 0.004894074
2506.868 0.002836467
2508.856 0.004083562
2510.844 0.004005792
2512.832 0.0
2514.82 0.003495848
2516.808 0.005318317
2518.796 0.002032471
2520.784 0.00275846
2522.772 0.0
2524.76 0.0
2526.748 0.000220584
2528.736 0.002918082
2530.724 0.0
2532.712 0.005134155
2534.7 0.0
2536.688 0.002853678
2538.676 0.0
2540.664 0.0
2542.652 0.0
2544.64 0.0
2546.628 0.000210175
2548.616 0.0
2550.604 0.0
2552.592 0.0
2554.58 0.000612462
2556.568 0.0
2558.556 0.0
2560.544 0.003618383
2562.532 0.0
2564.52 0.0
2566.508 0.0
2568.496 0.0
2570.484 0.003072015
2572.472 0.0
2574.46 0.0
2576.448 0.0
2578.436 0.0
2580.424 0.002572176
2582.412 0.0
2584.4 0.0
2586.388 0.0
2588.376 0.002521888
2590.364 0.0
2592.352 0.0
2594.34 0.0
2596.328 0.006069951
2598.316 0.0
2600.304 0.0
2602.292 0.0
2604.28 0.0
2606.268 0.0
2608.256 0.0
2610.244 0.0
2612.232 0.002760089
2614.22 0.002175606
2616.208 0.0
2618.196 0.0
2620.184 0.0
2622.172 0.0
2624.16 0.0
2626.148 0.0
2628.136 0.003019189
2630.124 0.0
2632.112 0.0
2634.1 0.0
2636.088 0.0
2638.076 0.000861836
2640.064 0.0
2642.052 0.0
2644.04 0.0
2646.028 0.0
2648.016 0.000617211
2650.004 0.0
2651.992 0.0
2653.98 0.0
2655.968 0.0
2657.956 0.0
2659.944 0.0
2661.932 0.0
2663.92 0.0
2665.908 0.0
2667.896 0.0
2669.884 0.002855874
2671.872 0.0
2673.86 0.0
2675.848 0.0
2677.836 0.0
2679.824 0.0
2681.812 0.0
2683.8 0.0
2685.788 0.0
2687.776 0.0
2689.764 0.0
2691.752 0.0
2693.74 0.0
2695.728 0.0
2697.716 0.0
2699.704 0.0
2701.692 0.0
2703.68 0.0
2705.668 0.0
2707.656 0.0
2709.644 0.0
2711.632 0.0
2713.62 0.0
2715.608 0.0
2717.596 0.0
2719.584 0.0
2721.572 0.0
2723.56 0.0
2725.548 0.0
2727.536 0.0
2729.524 0.0
2731.512 0.0
2733.5 0.009585961
2735.488 0.0
2737.476 0.0
2739.464 0.000244542
2741.452 0.0
2743.44 0.0
2745.428 0.0
2747.416 0.0
2749.404 0.0
2751.392 0.001829779
2753.38 0.0
2755.368 0.0
2757.356 0.0
2759.344 0.0
2761.332 0.0
2763.32 0.0
2765.308 0.0
2767.296 0.0
2769.284 0.0
2771.272 7.71e-05
2773.26 0.0
2775.248 0.0
2777.236 0.0
2779.224 0.0
2781.212 0.0
2783.2 0.002148306
2785.188 0.0
2787.176 0.003822749
2789.164 0.0
2791.152 0.0
2793.14 0.0
2795.128 0.0
2797.116 0.0
2799.104 0.009295812
2801.092 0.0
2803.08 0.0
2805.068 0.0
2807.056 0.0
2809.044 0.0
2811.032 0.0
2813.02 0.0
2815.008 0.0
2816.996 0.0
2818.984 0.0
2820.972 0.0
2822.96 0.0
2824.948 0.0
2826.936 0.00058999
2828.924 0.0
2830.912 0.0
2832.9 0.0
2834.888 0.0
2836.876 0.0
2838.864 0.0
2840.852 0.002906168
2842.84 0.0
2844.828 0.0
2846.816 0.0
2848.804 0.0
2850.792 0.0
2852.78 0.0
2854.768 0.0
2856.756 0.0
2858.744 0.0
2860.732 0.0
2862.72 0.0
2864.708 0.0
2866.696 0.0
2868.684 0.0
2870.672 0.000199888
2872.66 0.0
2874.648 0.0
2876.636 0.0
2878.624 0.0
2880.612 0.0
2882.6 0.0
2884.588 0.0
2886.576 0.0
2888.564 0.0
2890.552 0.0
2892.54 0.000621188
2894.528 0.0
2896.516 0.0
2898.504 0.0
2900.492 0.0
2902.48 0.0
2904.468 0.0
2906.456 0.0
2908.444 0.002138271
2910.432 0.0
2912.42 0.0
2914.408 0.0
2916.396 0.004813456
2918.384 0.0
2920.372 0.001025105
2922.36 0.0
2924.348 0.0
2926.336 0.0
2928.324 0.0
2930.312 0.0
2932.3 0.0
2934.288 0.0
2936.276 0.0
2938.264 0.0
2940.252 0.0
2942.24 0.0
2944.228 0.003321868
2946.216 0.0
2948.204 0.0
2950.192 0.0
2952.18 0.0
2954.168 0.0
2956.156 0.0
2958.144 0.0
2960.132 0.0
2962.12 0.0
2964.108 0.0
2966.096 0.0
2968.084 0.0
2970.072 0.0
2972.06 0.004582253
2974.048 0.0
2976.036 0.0
2978.024 0.0
2980.012 0.0
2982.0 0.0
